'Id: "COMMANDER Sample ID" Comment: "" Operator: "Lab Manager" Anode: "Cu" Wavelength: "1.5406" Scantype: "2Theta (TwoTheta)" TimePerStep: "19" X: "2" Y: "2" Z: "7.491" 
20.00000 4.579
20.02000 5.263
20.04000 4.263
20.06000 4.684
20.08000 3.526
20.10000 4.000
20.12000 3.789
20.14000 4.632
20.16000 4.158
20.18000 3.579
20.20000 4.263
20.22000 4.000
20.24000 4.105
20.26000 4.263
20.28000 4.000
20.30000 4.421
20.32000 4.053
20.34000 3.947
20.36000 3.947
20.38000 4.158
20.40000 3.895
20.42000 4.316
20.44000 4.421
20.46000 5.000
20.48000 4.316
20.50000 4.263
20.52000 4.737
20.54000 4.368
20.56000 4.316
20.58000 4.474
20.60000 4.263
20.62000 4.316
20.64000 4.421
20.66000 3.421
20.68000 4.632
20.70000 3.895
20.72000 4.158
20.74000 3.789
20.76000 4.737
20.78000 4.684
20.80000 4.263
20.82000 4.000
20.84000 3.947
20.86000 4.158
20.88000 3.263
20.90000 3.211
20.92000 4.053
20.94000 3.632
20.96000 3.947
20.98000 4.263
21.00000 4.105
21.02000 4.684
21.04000 4.316
21.06000 4.316
21.08000 3.684
21.10000 3.474
21.12000 3.842
21.14000 4.474
21.16000 4.211
21.18000 4.053
21.20000 3.842
21.22000 4.158
21.24000 3.632
21.26000 4.474
21.28000 4.158
21.30000 4.842
21.32000 3.789
21.34000 3.737
21.36000 3.316
21.38000 4.316
21.40000 4.053
21.42000 3.526
21.44000 4.158
21.46000 3.579
21.48000 4.263
21.50000 3.895
21.52000 3.737
21.54000 3.211
21.56000 3.789
21.58000 3.684
21.60000 3.842
21.62000 3.684
21.64000 3.632
21.66000 3.684
21.68000 3.737
21.70000 3.632
21.72000 3.211
21.74000 4.579
21.76000 3.263
21.78000 3.842
21.80000 3.263
21.82000 3.684
21.84000 3.474
21.86000 3.789
21.88000 3.789
21.90000 4.105
21.92000 4.263
21.94000 3.684
21.96000 3.947
21.98000 3.684
22.00000 5.211
22.02000 4.316
22.04000 3.842
22.06000 4.000
22.08000 3.474
22.10000 3.158
22.12000 3.947
22.14000 3.684
22.16000 4.947
22.18000 4.316
22.20000 3.316
22.22000 3.947
22.24000 4.053
22.26000 4.316
22.28000 5.053
22.30000 3.211
22.32000 4.000
22.34000 4.789
22.36000 4.421
22.38000 4.737
22.40000 4.579
22.42000 3.895
22.44000 3.421
22.46000 3.737
22.48000 5.263
22.50000 3.684
22.52000 4.316
22.54000 4.474
22.56000 3.737
22.58000 4.368
22.60000 4.368
22.62000 3.842
22.64000 4.000
22.66000 5.579
22.68000 3.737
22.70000 4.737
22.72000 4.053
22.74000 3.947
22.76000 4.053
22.78000 4.947
22.80000 4.579
22.82000 6.263
22.84000 5.158
22.86000 6.105
22.88000 5.158
22.90000 6.000
22.92000 6.000
22.94000 7.579
22.96000 8.000
22.98000 7.895
23.00000 7.579
23.02000 8.000
23.04000 8.158
23.06000 8.421
23.08000 7.632
23.10000 6.842
23.12000 6.789
23.14000 5.895
23.16000 6.632
23.18000 6.316
23.20000 6.579
23.22000 5.526
23.24000 7.105
23.26000 4.895
23.28000 5.105
23.30000 4.789
23.32000 4.842
23.34000 3.947
23.36000 4.158
23.38000 5.053
23.40000 4.211
23.42000 4.000
23.44000 4.263
23.46000 4.263
23.48000 3.947
23.50000 3.474
23.52000 4.211
23.54000 3.947
23.56000 3.579
23.58000 4.316
23.60000 3.421
23.62000 3.789
23.64000 3.684
23.66000 3.368
23.68000 4.053
23.70000 3.737
23.72000 3.579
23.74000 4.684
23.76000 4.474
23.78000 3.421
23.80000 3.105
23.82000 3.474
23.84000 3.421
23.86000 3.895
23.88000 3.368
23.90000 3.263
23.92000 3.842
23.94000 4.158
23.96000 3.053
23.98000 4.053
24.00000 3.842
24.02000 2.737
24.04000 2.895
24.06000 3.368
24.08000 3.316
24.10000 3.474
24.12000 2.842
24.14000 3.632
24.16000 3.947
24.18000 3.105
24.20000 2.947
24.22000 3.842
24.24000 2.895
24.26000 2.842
24.28000 3.526
24.30000 3.632
24.32000 3.053
24.34000 3.684
24.36000 3.737
24.38000 3.632
24.40000 3.684
24.42000 3.263
24.44000 3.105
24.46000 3.316
24.48000 4.105
24.50000 2.684
24.52000 3.579
24.54000 3.316
24.56000 3.000
24.58000 3.632
24.60000 3.474
24.62000 2.632
24.64000 4.316
24.66000 2.684
24.68000 2.474
24.70000 2.895
24.72000 3.368
24.74000 3.105
24.76000 3.474
24.78000 3.737
24.80000 3.842
24.82000 3.158
24.84000 2.737
24.86000 3.263
24.88000 2.895
24.90000 2.632
24.92000 2.842
24.94000 3.053
24.96000 3.105
24.98000 2.895
25.00000 3.632
25.02000 3.684
25.04000 3.211
25.06000 3.000
25.08000 3.158
25.10000 3.368
25.12000 3.211
25.14000 3.316
25.16000 2.947
25.18000 3.579
25.20000 2.737
25.22000 2.789
25.24000 3.263
25.26000 3.579
25.28000 3.000
25.30000 3.474
25.32000 3.579
25.34000 3.421
25.36000 3.158
25.38000 2.421
25.40000 3.000
25.42000 3.316
25.44000 3.316
25.46000 3.000
25.48000 2.684
25.50000 3.316
25.52000 3.474
25.54000 2.737
25.56000 3.000
25.58000 3.579
25.60000 2.895
25.62000 3.263
25.64000 2.421
25.66000 2.737
25.68000 3.316
25.70000 3.368
25.72000 3.000
25.74000 2.842
25.76000 3.105
25.78000 2.842
25.80000 3.632
25.82000 2.526
25.84000 2.895
25.86000 2.895
25.88000 2.211
25.90000 2.105
25.92000 2.895
25.94000 3.579
25.96000 3.579
25.98000 2.895
26.00000 2.526
26.02000 2.895
26.04000 2.579
26.06000 3.632
26.08000 2.526
26.10000 2.526
26.12000 3.000
26.14000 3.211
26.16000 3.368
26.18000 2.684
26.20000 3.789
26.22000 2.737
26.24000 3.263
26.26000 2.842
26.28000 3.053
26.30000 3.000
26.32000 3.053
26.34000 2.737
26.36000 2.684
26.38000 2.632
26.40000 2.789
26.42000 3.000
26.44000 2.947
26.46000 2.263
26.48000 3.368
26.50000 3.211
26.52000 2.737
26.54000 3.632
26.56000 3.421
26.58000 2.895
26.60000 2.789
26.62000 2.263
26.64000 2.737
26.66000 3.211
26.68000 2.158
26.70000 2.632
26.72000 2.789
26.74000 2.526
26.76000 2.579
26.78000 2.579
26.80000 3.684
26.82000 2.947
26.84000 3.474
26.86000 2.579
26.88000 2.526
26.90000 2.368
26.92000 3.263
26.94000 3.105
26.96000 3.632
26.98000 2.947
27.00000 3.789
27.02000 3.000
27.04000 3.684
27.06000 2.947
27.08000 3.000
27.10000 3.842
27.12000 3.053
27.14000 3.789
27.16000 2.842
27.18000 2.947
27.20000 2.842
27.22000 2.895
27.24000 2.842
27.26000 3.000
27.28000 3.316
27.30000 3.105
27.32000 3.158
27.34000 2.842
27.36000 3.632
27.38000 3.526
27.40000 3.368
27.42000 3.053
27.44000 2.421
27.46000 3.000
27.48000 2.526
27.50000 3.263
27.52000 2.105
27.54000 2.000
27.56000 3.158
27.58000 2.895
27.60000 3.053
27.62000 2.842
27.64000 2.684
27.66000 3.105
27.68000 2.263
27.70000 2.947
27.72000 2.474
27.74000 2.421
27.76000 2.842
27.78000 2.368
27.80000 2.368
27.82000 2.895
27.84000 2.895
27.86000 2.842
27.88000 2.684
27.90000 4.000
27.92000 2.789
27.94000 2.737
27.96000 3.053
27.98000 3.421
28.00000 3.211
28.02000 3.211
28.04000 3.526
28.06000 3.632
28.08000 2.947
28.10000 3.421
28.12000 3.632
28.14000 2.632
28.16000 3.947
28.18000 3.158
28.20000 3.421
28.22000 4.421
28.24000 4.000
28.26000 4.211
28.28000 4.526
28.30000 4.421
28.32000 4.368
28.34000 4.684
28.36000 5.632
28.38000 4.263
28.40000 4.895
28.42000 4.632
28.44000 5.895
28.46000 6.526
28.48000 7.105
28.50000 7.053
28.52000 8.158
28.54000 10.579
28.56000 9.684
28.58000 11.632
28.60000 11.000
28.62000 13.842
28.64000 16.053
28.66000 17.632
28.68000 18.316
28.70000 19.842
28.72000 21.632
28.74000 25.632
28.76000 24.316
28.78000 25.842
28.80000 25.526
28.82000 24.158
28.84000 25.632
28.86000 21.789
28.88000 20.000
28.90000 20.526
28.92000 18.684
28.94000 16.789
28.96000 15.947
28.98000 13.526
29.00000 13.000
29.02000 10.263
29.04000 7.737
29.06000 9.105
29.08000 7.947
29.10000 7.526
29.12000 6.053
29.14000 6.947
29.16000 4.895
29.18000 5.526
29.20000 4.737
29.22000 5.474
29.24000 5.000
29.26000 5.000
29.28000 4.579
29.30000 4.000
29.32000 4.158
29.34000 4.421
29.36000 3.158
29.38000 3.947
29.40000 2.842
29.42000 3.474
29.44000 3.789
29.46000 2.842
29.48000 2.526
29.50000 3.316
29.52000 2.737
29.54000 2.737
29.56000 2.474
29.58000 2.842
29.60000 3.684
29.62000 3.474
29.64000 2.526
29.66000 2.368
29.68000 2.421
29.70000 2.579
29.72000 2.737
29.74000 2.474
29.76000 3.000
29.78000 2.789
29.80000 2.684
29.82000 2.421
29.84000 2.158
29.86000 2.579
29.88000 2.316
29.90000 2.105
29.92000 2.632
29.94000 2.632
29.96000 2.421
29.98000 2.316
30.00000 2.421
30.02000 2.263
30.04000 2.368
30.06000 2.842
30.08000 2.000
30.10000 2.579
30.12000 2.368
30.14000 2.368
30.16000 2.158
30.18000 2.526
30.20000 3.526
30.22000 2.947
30.24000 2.158
30.26000 2.632
30.28000 3.053
30.30000 2.316
30.32000 2.632
30.34000 2.632
30.36000 2.105
30.38000 2.789
30.40000 2.474
30.42000 2.211
30.44000 3.158
30.46000 2.105
30.48000 2.737
30.50000 2.211
30.52000 2.579
30.54000 2.947
30.56000 2.263
30.58000 2.684
30.60000 2.316
30.62000 3.158
30.64000 2.737
30.66000 2.211
30.68000 1.947
30.70000 1.895
30.72000 2.474
30.74000 3.000
30.76000 2.158
30.78000 2.474
30.80000 2.526
30.82000 2.368
30.84000 2.368
30.86000 3.316
30.88000 2.895
30.90000 2.368
30.92000 2.474
30.94000 3.105
30.96000 3.263
30.98000 2.789
31.00000 2.632
31.02000 2.895
31.04000 2.947
31.06000 3.211
31.08000 2.895
31.10000 2.947
31.12000 2.737
31.14000 3.368
31.16000 3.684
31.18000 3.842
31.20000 2.789
31.22000 2.947
31.24000 4.211
31.26000 3.737
31.28000 4.421
31.30000 5.053
31.32000 4.368
31.34000 4.000
31.36000 5.263
31.38000 5.316
31.40000 4.947
31.42000 5.421
31.44000 5.737
31.46000 5.684
31.48000 5.421
31.50000 5.842
31.52000 5.947
31.54000 5.895
31.56000 6.211
31.58000 6.947
31.60000 6.000
31.62000 6.211
31.64000 5.526
31.66000 7.105
31.68000 6.000
31.70000 6.368
31.72000 5.579
31.74000 7.947
31.76000 7.105
31.78000 7.579
31.80000 7.368
31.82000 7.316
31.84000 7.842
31.86000 9.263
31.88000 10.158
31.90000 9.632
31.92000 10.737
31.94000 12.947
31.96000 13.263
31.98000 13.684
32.00000 14.474
32.02000 17.368
32.04000 15.789
32.06000 18.632
32.08000 21.526
32.10000 20.368
32.12000 22.895
32.14000 23.263
32.16000 27.000
32.18000 24.947
32.20000 25.000
32.22000 25.158
32.24000 23.842
32.26000 26.474
32.28000 24.053
32.30000 23.842
32.32000 23.105
32.34000 23.211
32.36000 21.158
32.38000 21.053
32.40000 20.158
32.42000 18.316
32.44000 17.053
32.46000 15.842
32.48000 14.737
32.50000 13.842
32.52000 14.000
32.54000 10.684
32.56000 10.263
32.58000 10.316
32.60000 9.895
32.62000 8.579
32.64000 7.211
32.66000 7.842
32.68000 6.737
32.70000 6.737
32.72000 6.842
32.74000 5.579
32.76000 5.421
32.78000 5.053
32.80000 5.421
32.82000 4.211
32.84000 4.842
32.86000 3.842
32.88000 3.842
32.90000 3.684
32.92000 2.947
32.94000 3.842
32.96000 4.000
32.98000 4.000
33.00000 2.947
33.02000 2.895
33.04000 3.526
33.06000 2.421
33.08000 2.842
33.10000 2.789
33.12000 3.053
33.14000 2.947
33.16000 2.526
33.18000 2.947
33.20000 3.000
33.22000 3.368
33.24000 2.526
33.26000 3.053
33.28000 2.421
33.30000 3.421
33.32000 2.895
33.34000 2.474
33.36000 2.263
33.38000 2.737
33.40000 2.789
33.42000 2.895
33.44000 2.474
33.46000 2.211
33.48000 2.421
33.50000 2.684
33.52000 2.368
33.54000 2.526
33.56000 2.368
33.58000 2.684
33.60000 2.421
33.62000 2.632
33.64000 2.737
33.66000 2.474
33.68000 3.000
33.70000 2.105
33.72000 3.368
33.74000 1.895
33.76000 2.895
33.78000 3.000
33.80000 2.316
33.82000 3.263
33.84000 3.737
33.86000 3.474
33.88000 3.632
33.90000 3.053
33.92000 2.947
33.94000 4.053
33.96000 4.105
33.98000 4.316
34.00000 4.526
34.02000 4.842
34.04000 4.474
34.06000 5.105
34.08000 4.211
34.10000 5.842
34.12000 5.632
34.14000 5.000
34.16000 4.947
34.18000 5.421
34.20000 4.737
34.22000 4.316
34.24000 5.474
34.26000 4.053
34.28000 3.421
34.30000 4.368
34.32000 3.316
34.34000 4.421
34.36000 3.632
34.38000 2.684
34.40000 3.368
34.42000 2.684
34.44000 2.684
34.46000 3.000
34.48000 2.842
34.50000 2.526
34.52000 3.263
34.54000 2.000
34.56000 2.263
34.58000 2.789
34.60000 2.263
34.62000 2.158
34.64000 2.474
34.66000 2.105
34.68000 2.684
34.70000 2.842
34.72000 2.053
34.74000 2.421
34.76000 2.053
34.78000 1.947
34.80000 2.895
34.82000 2.000
34.84000 2.158
34.86000 2.211
34.88000 2.684
34.90000 2.368
34.92000 2.526
34.94000 2.105
34.96000 2.579
34.98000 2.368
35.00000 2.368
35.02000 2.474
35.04000 2.053
35.06000 2.421
35.08000 2.053
35.10000 2.316
35.12000 2.105
35.14000 2.579
35.16000 2.421
35.18000 2.684
35.20000 3.421
35.22000 2.368
35.24000 2.211
35.26000 2.789
35.28000 1.579
35.30000 2.579
35.32000 2.105
35.34000 2.895
35.36000 2.579
35.38000 2.368
35.40000 2.316
35.42000 3.053
35.44000 2.421
35.46000 3.632
35.48000 2.842
35.50000 2.895
35.52000 4.421
35.54000 3.316
35.56000 3.526
35.58000 3.263
35.60000 4.947
35.62000 4.421
35.64000 4.316
35.66000 4.895
35.68000 5.105
35.70000 6.105
35.72000 5.368
35.74000 5.579
35.76000 7.053
35.78000 6.263
35.80000 6.526
35.82000 7.368
35.84000 8.211
35.86000 8.421
35.88000 7.737
35.90000 8.053
35.92000 9.105
35.94000 7.579
35.96000 7.737
35.98000 6.947
36.00000 7.316
36.02000 7.579
36.04000 6.632
36.06000 7.684
36.08000 6.579
36.10000 5.737
36.12000 6.158
36.14000 6.842
36.16000 6.368
36.18000 6.842
36.20000 8.316
36.22000 7.526
36.24000 8.368
36.26000 8.421
36.28000 8.684
36.30000 10.105
36.32000 10.105
36.34000 11.263
36.36000 11.211
36.38000 12.684
36.40000 12.368
36.42000 11.789
36.44000 12.474
36.46000 14.737
36.48000 13.263
36.50000 14.368
36.52000 15.105
36.54000 12.158
36.56000 13.737
36.58000 11.842
36.60000 12.000
36.62000 11.895
36.64000 12.105
36.66000 10.684
36.68000 8.263
36.70000 9.947
36.72000 8.053
36.74000 7.579
36.76000 6.579
36.78000 6.000
36.80000 5.368
36.82000 5.579
36.84000 4.474
36.86000 5.474
36.88000 5.579
36.90000 4.579
36.92000 3.947
36.94000 3.895
36.96000 3.684
36.98000 2.947
37.00000 2.474
37.02000 2.684
37.04000 2.737
37.06000 3.211
37.08000 2.842
37.10000 2.316
37.12000 2.263
37.14000 2.000
37.16000 2.632
37.18000 2.947
37.20000 2.316
37.22000 1.895
37.24000 2.368
37.26000 2.000
37.28000 2.316
37.30000 2.105
37.32000 2.263
37.34000 2.105
37.36000 2.421
37.38000 2.211
37.40000 1.947
37.42000 2.158
37.44000 1.684
37.46000 1.895
37.48000 2.105
37.50000 1.895
37.52000 2.421
37.54000 1.684
37.56000 2.158
37.58000 1.842
37.60000 1.842
37.62000 1.632
37.64000 2.474
37.66000 2.421
37.68000 1.368
37.70000 2.158
37.72000 1.368
37.74000 1.316
37.76000 1.842
37.78000 1.737
37.80000 1.789
37.82000 2.474
37.84000 1.895
37.86000 2.158
37.88000 1.632
37.90000 1.789
37.92000 2.105
37.94000 1.316
37.96000 2.368
37.98000 1.421
38.00000 1.579
38.02000 1.684
38.04000 1.842
38.06000 1.579
38.08000 1.789
38.10000 1.632
38.12000 1.895
38.14000 2.053
38.16000 2.368
38.18000 1.579
38.20000 1.895
38.22000 1.947
38.24000 1.842
38.26000 1.579
38.28000 1.895
38.30000 1.895
38.32000 1.632
38.34000 1.947
38.36000 2.158
38.38000 1.526
38.40000 1.632
38.42000 1.737
38.44000 1.947
38.46000 1.737
38.48000 1.579
38.50000 1.947
38.52000 1.421
38.54000 2.000
38.56000 1.737
38.58000 1.737
38.60000 2.000
38.62000 1.632
38.64000 1.632
38.66000 2.211
38.68000 1.684
38.70000 1.316
38.72000 0.947
38.74000 1.947
38.76000 1.526
38.78000 1.632
38.80000 1.368
38.82000 1.842
38.84000 1.526
38.86000 1.579
38.88000 2.053
38.90000 1.684
38.92000 1.474
38.94000 1.737
38.96000 1.474
38.98000 1.947
39.00000 1.526
39.02000 1.842
39.04000 1.632
39.06000 1.421
39.08000 1.947
39.10000 1.895
39.12000 2.421
39.14000 1.895
39.16000 1.526
39.18000 1.579
39.20000 0.789
39.22000 1.579
39.24000 1.211
39.26000 1.368
39.28000 1.789
39.30000 1.263
39.32000 1.263
39.34000 2.000
39.36000 1.632
39.38000 1.316
39.40000 1.947
39.42000 1.737
39.44000 1.895
39.46000 1.579
39.48000 1.842
39.50000 1.737
39.52000 1.632
39.54000 1.789
39.56000 1.368
39.58000 2.000
39.60000 1.316
39.62000 1.895
39.64000 1.263
39.66000 1.474
39.68000 1.316
39.70000 1.684
39.72000 1.789
39.74000 1.526
39.76000 1.316
39.78000 2.211
39.80000 1.789
39.82000 1.474
39.84000 1.526
39.86000 1.684
39.88000 1.789
39.90000 1.053
39.92000 1.158
39.94000 1.000
39.96000 1.421
39.98000 1.632
40.00000 1.526
40.02000 1.632
40.04000 2.105
40.06000 1.579
40.08000 1.579
40.10000 1.579
40.12000 1.105
40.14000 1.474
40.16000 1.737
40.18000 2.053
40.20000 1.632
40.22000 1.368
40.24000 1.947
40.26000 1.474
40.28000 1.737
40.30000 1.211
40.32000 1.895
40.34000 1.895
40.36000 1.474
40.38000 1.474
40.40000 1.368
40.42000 1.421
40.44000 1.737
40.46000 1.632
40.48000 1.421
40.50000 1.526
40.52000 1.737
40.54000 1.842
40.56000 2.211
40.58000 2.000
40.60000 1.684
40.62000 1.421
40.64000 1.421
40.66000 1.842
40.68000 1.684
40.70000 2.000
40.72000 1.368
40.74000 1.316
40.76000 1.579
40.78000 1.158
40.80000 1.632
40.82000 1.000
40.84000 1.368
40.86000 1.737
40.88000 1.737
40.90000 2.211
40.92000 1.684
40.94000 1.474
40.96000 1.316
40.98000 1.474
41.00000 1.316
41.02000 1.421
41.04000 1.316
41.06000 1.316
41.08000 1.789
41.10000 1.684
41.12000 1.474
41.14000 1.263
41.16000 1.421
41.18000 1.158
41.20000 1.632
41.22000 2.158
41.24000 1.211
41.26000 1.684
41.28000 1.842
41.30000 1.105
41.32000 1.947
41.34000 1.158
41.36000 1.947
41.38000 1.158
41.40000 1.737
41.42000 2.211
41.44000 1.526
41.46000 1.789
41.48000 1.368
41.50000 1.526
41.52000 1.105
41.54000 1.737
41.56000 1.579
41.58000 1.632
41.60000 1.579
41.62000 1.579
41.64000 2.105
41.66000 1.842
41.68000 1.737
41.70000 1.526
41.72000 1.842
41.74000 1.053
41.76000 1.474
41.78000 0.842
41.80000 1.895
41.82000 1.368
41.84000 1.842
41.86000 1.368
41.88000 1.947
41.90000 1.579
41.92000 1.632
41.94000 1.211
41.96000 1.632
41.98000 1.263
42.00000 0.842
42.02000 1.579
42.04000 1.579
42.06000 2.000
42.08000 1.474
42.10000 1.316
42.12000 1.789
42.14000 1.316
42.16000 1.158
42.18000 1.579
42.20000 1.842
42.22000 0.895
42.24000 1.789
42.26000 1.947
42.28000 1.474
42.30000 1.684
42.32000 1.789
42.34000 1.737
42.36000 1.368
42.38000 2.158
42.40000 1.632
42.42000 1.316
42.44000 1.895
42.46000 1.526
42.48000 1.895
42.50000 1.211
42.52000 0.842
42.54000 2.105
42.56000 1.368
42.58000 1.316
42.60000 1.000
42.62000 1.947
42.64000 1.737
42.66000 1.684
42.68000 1.684
42.70000 1.421
42.72000 2.000
42.74000 1.842
42.76000 1.947
42.78000 1.158
42.80000 1.211
42.82000 1.632
42.84000 2.053
42.86000 2.000
42.88000 1.368
42.90000 1.579
42.92000 1.263
42.94000 1.895
42.96000 2.158
42.98000 1.895
43.00000 2.211
43.02000 1.684
43.04000 1.947
43.06000 1.579
43.08000 1.632
43.10000 2.158
43.12000 1.526
43.14000 1.526
43.16000 2.158
43.18000 1.316
43.20000 2.000
43.22000 1.947
43.24000 1.737
43.26000 1.947
43.28000 1.421
43.30000 2.158
43.32000 1.895
43.34000 1.737
43.36000 1.842
43.38000 1.789
43.40000 1.263
43.42000 1.789
43.44000 1.737
43.46000 1.526
43.48000 1.684
43.50000 1.263
43.52000 1.474
43.54000 2.211
43.56000 1.526
43.58000 1.684
43.60000 1.526
43.62000 1.474
43.64000 1.579
43.66000 1.474
43.68000 2.000
43.70000 1.737
43.72000 2.000
43.74000 2.000
43.76000 1.947
43.78000 1.842
43.80000 1.684
43.82000 1.211
43.84000 1.789
43.86000 1.579
43.88000 1.684
43.90000 1.474
43.92000 1.737
43.94000 1.105
43.96000 1.474
43.98000 1.579
44.00000 1.842
44.02000 1.526
44.04000 2.158
44.06000 2.263
44.08000 1.474
44.10000 1.684
44.12000 1.368
44.14000 1.579
44.16000 1.632
44.18000 2.053
44.20000 1.632
44.22000 1.947
44.24000 2.105
44.26000 1.632
44.28000 2.263
44.30000 1.895
44.32000 2.632
44.34000 2.895
44.36000 3.474
44.38000 3.737
44.40000 3.526
44.42000 2.421
44.44000 3.632
44.46000 4.105
44.48000 4.000
44.50000 3.474
44.52000 4.421
44.54000 4.263
44.56000 4.158
44.58000 4.579
44.60000 4.842
44.62000 3.842
44.64000 3.684
44.66000 5.316
44.68000 3.000
44.70000 3.579
44.72000 3.421
44.74000 2.947
44.76000 3.000
44.78000 3.526
44.80000 3.842
44.82000 3.263
44.84000 2.842
44.86000 2.737
44.88000 3.474
44.90000 2.579
44.92000 3.632
44.94000 2.105
44.96000 2.105
44.98000 2.000
45.00000 2.105
45.02000 2.368
45.04000 2.368
45.06000 2.789
45.08000 2.579
45.10000 2.895
45.12000 2.684
45.14000 2.105
45.16000 2.421
45.18000 2.632
45.20000 2.684
45.22000 2.632
45.24000 1.947
45.26000 1.947
45.28000 3.368
45.30000 2.316
45.32000 2.684
45.34000 3.105
45.36000 3.579
45.38000 3.421
45.40000 2.895
45.42000 3.684
45.44000 3.368
45.46000 3.474
45.48000 3.842
45.50000 3.421
45.52000 4.158
45.54000 3.211
45.56000 5.105
45.58000 5.000
45.60000 5.368
45.62000 7.053
45.64000 5.789
45.66000 5.316
45.68000 6.632
45.70000 8.105
45.72000 10.053
45.74000 10.368
45.76000 11.789
45.78000 13.368
45.80000 12.895
45.82000 16.368
45.84000 16.789
45.86000 19.000
45.88000 20.421
45.90000 22.368
45.92000 24.158
45.94000 25.947
45.96000 28.526
45.98000 28.895
46.00000 30.263
46.02000 27.737
46.04000 29.632
46.06000 26.474
46.08000 26.158
46.10000 25.368
46.12000 25.263
46.14000 22.737
46.16000 19.474
46.18000 20.737
46.20000 17.684
46.22000 15.158
46.24000 14.263
46.26000 13.316
