'Id: "COMMANDER Sample ID" Comment: "" Operator: "Lab Manager" Anode: "Cu" Wavelength: "1.5406" Scantype: "2Theta (TwoTheta)" TimePerStep: "18.5" X: "2" Y: "2" Z: "7.449" 
20.00000 4.811
20.02000 4.486
20.04000 5.189
20.06000 4.811
20.08000 3.892
20.10000 5.297
20.12000 5.243
20.14000 5.405
20.16000 5.027
20.18000 5.081
20.20000 4.541
20.22000 5.189
20.24000 5.568
20.26000 4.919
20.28000 4.811
20.30000 5.135
20.32000 5.135
20.34000 4.432
20.36000 4.649
20.38000 4.541
20.40000 4.432
20.42000 4.757
20.44000 5.568
20.46000 5.243
20.48000 5.784
20.50000 4.973
20.52000 4.919
20.54000 4.595
20.56000 4.270
20.58000 4.541
20.60000 4.649
20.62000 4.324
20.64000 5.135
20.66000 4.541
20.68000 4.162
20.70000 4.865
20.72000 4.432
20.74000 4.216
20.76000 4.054
20.78000 4.865
20.80000 4.541
20.82000 5.135
20.84000 4.216
20.86000 4.757
20.88000 4.216
20.90000 4.757
20.92000 4.811
20.94000 4.919
20.96000 5.189
20.98000 5.405
21.00000 5.514
21.02000 4.162
21.04000 4.378
21.06000 4.595
21.08000 4.973
21.10000 5.405
21.12000 4.541
21.14000 3.946
21.16000 5.027
21.18000 5.189
21.20000 4.378
21.22000 4.000
21.24000 4.595
21.26000 3.838
21.28000 4.216
21.30000 4.378
21.32000 5.459
21.34000 3.405
21.36000 3.892
21.38000 4.595
21.40000 4.649
21.42000 4.865
21.44000 4.865
21.46000 4.108
21.48000 5.189
21.50000 4.216
21.52000 4.649
21.54000 4.541
21.56000 5.027
21.58000 4.811
21.60000 5.459
21.62000 4.162
21.64000 3.676
21.66000 4.541
21.68000 5.946
21.70000 4.811
21.72000 4.703
21.74000 4.649
21.76000 5.351
21.78000 5.081
21.80000 5.568
21.82000 5.730
21.84000 5.568
21.86000 5.946
21.88000 5.622
21.90000 5.730
21.92000 6.486
21.94000 6.054
21.96000 6.216
21.98000 5.892
22.00000 6.541
22.02000 6.919
22.04000 6.378
22.06000 6.486
22.08000 6.757
22.10000 6.270
22.12000 6.162
22.14000 5.784
22.16000 5.297
22.18000 5.405
22.20000 5.514
22.22000 4.811
22.24000 5.351
22.26000 5.459
22.28000 4.865
22.30000 3.730
22.32000 5.514
22.34000 4.811
22.36000 4.649
22.38000 5.081
22.40000 4.324
22.42000 4.162
22.44000 4.486
22.46000 5.135
22.48000 4.486
22.50000 4.595
22.52000 5.081
22.54000 5.081
22.56000 4.649
22.58000 4.270
22.60000 5.243
22.62000 4.270
22.64000 4.811
22.66000 4.541
22.68000 4.811
22.70000 3.946
22.72000 4.595
22.74000 4.216
22.76000 5.027
22.78000 4.216
22.80000 4.270
22.82000 4.432
22.84000 4.865
22.86000 4.216
22.88000 4.108
22.90000 4.486
22.92000 4.432
22.94000 4.649
22.96000 4.811
22.98000 4.973
23.00000 4.270
23.02000 4.432
23.04000 5.135
23.06000 4.541
23.08000 4.054
23.10000 4.216
23.12000 5.135
23.14000 4.541
23.16000 4.919
23.18000 4.811
23.20000 3.784
23.22000 4.000
23.24000 4.054
23.26000 4.486
23.28000 4.216
23.30000 4.486
23.32000 4.486
23.34000 4.378
23.36000 4.541
23.38000 3.784
23.40000 5.135
23.42000 4.324
23.44000 5.135
23.46000 4.054
23.48000 4.216
23.50000 4.703
23.52000 4.324
23.54000 4.757
23.56000 4.973
23.58000 3.622
23.60000 4.324
23.62000 4.000
23.64000 4.216
23.66000 4.378
23.68000 5.081
23.70000 4.216
23.72000 5.459
23.74000 3.892
23.76000 4.541
23.78000 4.757
23.80000 4.108
23.82000 3.946
23.84000 5.405
23.86000 4.973
23.88000 4.378
23.90000 3.892
23.92000 4.162
23.94000 3.784
23.96000 4.649
23.98000 4.000
24.00000 4.324
24.02000 5.081
24.04000 4.162
24.06000 5.189
24.08000 4.703
24.10000 4.270
24.12000 4.378
24.14000 4.595
24.16000 4.486
24.18000 5.405
24.20000 4.973
24.22000 4.703
24.24000 4.703
24.26000 4.162
24.28000 4.865
24.30000 4.378
24.32000 4.270
24.34000 4.162
24.36000 5.081
24.38000 4.649
24.40000 4.973
24.42000 3.838
24.44000 4.216
24.46000 4.378
24.48000 4.703
24.50000 4.162
24.52000 5.568
24.54000 4.649
24.56000 5.297
24.58000 4.108
24.60000 5.243
24.62000 4.811
24.64000 5.081
24.66000 4.432
24.68000 3.946
24.70000 4.703
24.72000 4.378
24.74000 4.919
24.76000 4.865
24.78000 4.486
24.80000 4.054
24.82000 4.324
24.84000 5.027
24.86000 4.865
24.88000 5.568
24.90000 5.135
24.92000 5.405
24.94000 4.865
24.96000 5.081
24.98000 4.324
25.00000 4.703
25.02000 5.568
25.04000 4.270
25.06000 4.973
25.08000 5.243
25.10000 4.973
25.12000 5.081
25.14000 4.703
25.16000 5.243
25.18000 5.297
25.20000 4.649
25.22000 5.189
25.24000 5.351
25.26000 5.514
25.28000 4.649
25.30000 5.784
25.32000 5.405
25.34000 5.459
25.36000 5.514
25.38000 4.649
25.40000 4.919
25.42000 5.297
25.44000 4.919
25.46000 5.189
25.48000 5.459
25.50000 5.027
25.52000 5.081
25.54000 4.973
25.56000 5.676
25.58000 5.297
25.60000 5.351
25.62000 5.730
25.64000 5.189
25.66000 6.054
25.68000 5.027
25.70000 5.568
25.72000 6.000
25.74000 6.000
25.76000 6.054
25.78000 4.919
25.80000 5.892
25.82000 4.649
25.84000 5.189
25.86000 4.919
25.88000 4.973
25.90000 6.486
25.92000 6.378
25.94000 5.459
25.96000 5.514
25.98000 6.000
26.00000 5.892
26.02000 5.622
26.04000 5.405
26.06000 5.135
26.08000 6.000
26.10000 5.946
26.12000 5.081
26.14000 5.730
26.16000 6.703
26.18000 5.514
26.20000 6.108
26.22000 5.784
26.24000 5.081
26.26000 4.595
26.28000 4.865
26.30000 4.541
26.32000 4.757
26.34000 5.081
26.36000 5.027
26.38000 4.703
26.40000 4.919
26.42000 4.811
26.44000 4.811
26.46000 4.432
26.48000 5.081
26.50000 5.027
26.52000 5.081
26.54000 4.973
26.56000 4.432
26.58000 5.351
26.60000 4.811
26.62000 4.919
26.64000 5.189
26.66000 5.081
26.68000 5.351
26.70000 4.811
26.72000 4.216
26.74000 4.486
26.76000 5.189
26.78000 5.405
26.80000 4.973
26.82000 4.108
26.84000 4.108
26.86000 4.378
26.88000 4.541
26.90000 3.676
26.92000 4.865
26.94000 3.622
26.96000 3.351
26.98000 3.730
27.00000 5.027
27.02000 5.081
27.04000 4.757
27.06000 3.730
27.08000 4.541
27.10000 4.865
27.12000 3.892
27.14000 5.027
27.16000 3.838
27.18000 4.270
27.20000 4.595
27.22000 4.541
27.24000 4.324
27.26000 5.081
27.28000 4.541
27.30000 3.622
27.32000 5.081
27.34000 4.162
27.36000 4.432
27.38000 4.432
27.40000 3.946
27.42000 3.622
27.44000 4.216
27.46000 3.784
27.48000 4.108
27.50000 4.270
27.52000 4.378
27.54000 3.730
27.56000 2.757
27.58000 2.378
27.60000 4.216
27.62000 4.486
27.64000 3.838
27.66000 3.784
27.68000 4.000
27.70000 4.000
27.72000 3.027
27.74000 3.784
27.76000 2.865
27.78000 4.054
27.80000 4.649
27.82000 3.622
27.84000 3.838
27.86000 3.838
27.88000 3.351
27.90000 2.865
27.92000 3.243
27.94000 3.946
27.96000 3.243
27.98000 3.568
28.00000 3.838
28.02000 3.784
28.04000 2.973
28.06000 4.000
28.08000 3.676
28.10000 3.297
28.12000 2.973
28.14000 3.243
28.16000 3.838
28.18000 4.108
28.20000 3.135
28.22000 3.946
28.24000 3.568
28.26000 3.514
28.28000 3.351
28.30000 3.405
28.32000 3.568
28.34000 3.730
28.36000 3.135
28.38000 3.297
28.40000 3.514
28.42000 3.351
28.44000 3.027
28.46000 3.351
28.48000 2.649
28.50000 3.081
28.52000 3.568
28.54000 3.081
28.56000 3.189
28.58000 3.568
28.60000 2.973
28.62000 3.784
28.64000 3.351
28.66000 3.243
28.68000 4.000
28.70000 2.865
28.72000 3.405
28.74000 3.351
28.76000 2.811
28.78000 2.432
28.80000 4.054
28.82000 2.541
28.84000 2.865
28.86000 3.243
28.88000 3.351
28.90000 3.243
28.92000 4.162
28.94000 3.081
28.96000 3.135
28.98000 3.514
29.00000 2.973
29.02000 2.649
29.04000 3.297
29.06000 4.162
29.08000 3.892
29.10000 3.892
29.12000 2.432
29.14000 2.811
29.16000 4.108
29.18000 2.811
29.20000 2.757
29.22000 2.811
29.24000 2.919
29.26000 3.027
29.28000 2.919
29.30000 3.243
29.32000 2.000
29.34000 2.757
29.36000 3.351
29.38000 3.459
29.40000 3.514
29.42000 3.243
29.44000 3.297
29.46000 3.297
29.48000 3.189
29.50000 3.838
29.52000 1.892
29.54000 2.595
29.56000 2.865
29.58000 3.081
29.60000 2.973
29.62000 2.973
29.64000 3.676
29.66000 2.865
29.68000 3.568
29.70000 3.514
29.72000 3.027
29.74000 2.595
29.76000 3.189
29.78000 3.351
29.80000 3.297
29.82000 3.027
29.84000 2.649
29.86000 2.703
29.88000 3.351
29.90000 3.243
29.92000 3.243
29.94000 2.973
29.96000 2.865
29.98000 2.432
30.00000 3.297
30.02000 2.865
30.04000 2.324
30.06000 2.757
30.08000 2.973
30.10000 3.405
30.12000 2.486
30.14000 2.486
30.16000 3.568
30.18000 3.243
30.20000 2.595
30.22000 2.541
30.24000 2.108
30.26000 3.027
30.28000 2.757
30.30000 2.865
30.32000 3.351
30.34000 2.757
30.36000 4.108
30.38000 3.676
30.40000 3.730
30.42000 3.243
30.44000 2.811
30.46000 3.081
30.48000 3.405
30.50000 3.027
30.52000 3.405
30.54000 3.514
30.56000 2.649
30.58000 4.054
30.60000 3.459
30.62000 3.189
30.64000 2.919
30.66000 2.757
30.68000 3.459
30.70000 3.892
30.72000 3.081
30.74000 3.405
30.76000 3.568
30.78000 3.351
30.80000 4.054
30.82000 3.297
30.84000 2.378
30.86000 4.324
30.88000 3.568
30.90000 3.351
30.92000 3.351
30.94000 3.568
30.96000 4.216
30.98000 4.541
31.00000 3.784
31.02000 3.946
31.04000 5.027
31.06000 5.135
31.08000 4.595
31.10000 4.649
31.12000 6.000
31.14000 6.324
31.16000 7.351
31.18000 6.595
31.20000 6.811
31.22000 6.811
31.24000 8.108
31.26000 9.351
31.28000 7.459
31.30000 8.432
31.32000 8.378
31.34000 7.135
31.36000 5.946
31.38000 5.730
31.40000 5.189
31.42000 5.459
31.44000 4.324
31.46000 4.162
31.48000 4.649
31.50000 4.649
31.52000 4.919
31.54000 3.730
31.56000 3.784
31.58000 3.459
31.60000 3.135
31.62000 3.514
31.64000 2.486
31.66000 4.162
31.68000 2.270
31.70000 2.649
31.72000 3.135
31.74000 2.919
31.76000 3.459
31.78000 3.243
31.80000 2.757
31.82000 3.081
31.84000 3.081
31.86000 3.081
31.88000 3.135
31.90000 3.135
31.92000 3.297
31.94000 2.703
31.96000 2.757
31.98000 3.243
32.00000 3.459
32.02000 2.649
32.04000 2.973
32.06000 2.216
32.08000 3.297
32.10000 2.811
32.12000 3.351
32.14000 2.757
32.16000 3.189
32.18000 2.919
32.20000 3.297
32.22000 2.432
32.24000 3.622
32.26000 2.757
32.28000 3.027
32.30000 3.189
32.32000 2.432
32.34000 3.135
32.36000 3.135
32.38000 3.568
32.40000 3.027
32.42000 3.459
32.44000 3.243
32.46000 3.622
32.48000 4.216
32.50000 3.243
32.52000 4.000
32.54000 3.568
32.56000 3.568
32.58000 3.297
32.60000 4.541
32.62000 4.108
32.64000 4.000
32.66000 5.189
32.68000 5.189
32.70000 4.919
32.72000 4.865
32.74000 6.270
32.76000 6.054
32.78000 6.162
32.80000 5.838
32.82000 5.946
32.84000 5.730
32.86000 4.973
32.88000 4.703
32.90000 4.757
32.92000 4.541
32.94000 4.324
32.96000 3.514
32.98000 3.946
33.00000 3.081
33.02000 4.054
33.04000 2.919
33.06000 3.027
33.08000 3.027
33.10000 3.730
33.12000 2.486
33.14000 2.595
33.16000 3.243
33.18000 2.865
33.20000 2.595
33.22000 2.703
33.24000 3.189
33.26000 3.351
33.28000 2.432
33.30000 2.865
33.32000 3.189
33.34000 2.919
33.36000 2.649
33.38000 2.541
33.40000 2.865
33.42000 2.973
33.44000 2.595
33.46000 2.541
33.48000 2.703
33.50000 3.081
33.52000 2.270
33.54000 2.757
33.56000 3.459
33.58000 3.027
33.60000 3.027
33.62000 2.649
33.64000 3.027
33.66000 2.703
33.68000 2.865
33.70000 2.703
33.72000 2.378
33.74000 2.378
33.76000 2.378
33.78000 2.432
33.80000 2.973
33.82000 2.973
33.84000 2.865
33.86000 2.595
33.88000 2.757
33.90000 2.973
33.92000 2.973
33.94000 2.324
33.96000 2.595
33.98000 2.486
34.00000 3.297
34.02000 2.865
34.04000 2.919
34.06000 2.486
34.08000 2.162
34.10000 3.189
34.12000 2.108
34.14000 2.541
34.16000 3.189
34.18000 2.595
34.20000 2.595
34.22000 1.946
34.24000 2.324
34.26000 2.757
34.28000 2.378
34.30000 2.541
34.32000 3.189
34.34000 2.162
34.36000 3.027
34.38000 2.649
34.40000 2.486
34.42000 3.243
34.44000 2.811
34.46000 2.919
34.48000 3.459
34.50000 2.108
34.52000 2.919
34.54000 3.243
34.56000 2.216
34.58000 2.541
34.60000 2.108
34.62000 2.432
34.64000 2.865
34.66000 2.649
34.68000 2.541
34.70000 2.757
34.72000 2.973
34.74000 2.541
34.76000 2.919
34.78000 3.514
34.80000 2.595
34.82000 2.541
34.84000 2.811
34.86000 2.757
34.88000 3.027
34.90000 1.946
34.92000 2.378
34.94000 2.811
34.96000 2.811
34.98000 2.811
35.00000 3.027
35.02000 2.649
35.04000 3.027
35.06000 2.757
35.08000 2.432
35.10000 2.595
35.12000 2.270
35.14000 2.378
35.16000 2.486
35.18000 2.595
35.20000 2.000
35.22000 2.865
35.24000 2.216
35.26000 2.541
35.28000 2.108
35.30000 2.595
35.32000 2.595
35.34000 2.486
35.36000 2.486
35.38000 2.486
35.40000 2.432
35.42000 3.189
35.44000 3.027
35.46000 1.946
35.48000 2.919
35.50000 2.595
35.52000 2.541
35.54000 1.892
35.56000 3.568
35.58000 2.919
35.60000 2.811
35.62000 3.027
35.64000 3.351
35.66000 2.541
35.68000 2.486
35.70000 3.027
35.72000 2.541
35.74000 2.162
35.76000 2.270
35.78000 2.324
35.80000 2.216
35.82000 2.865
35.84000 2.108
35.86000 2.595
35.88000 3.027
35.90000 2.811
35.92000 3.405
35.94000 2.649
35.96000 2.378
35.98000 2.703
36.00000 3.568
36.02000 2.432
36.04000 3.946
36.06000 3.081
36.08000 3.027
36.10000 2.703
36.12000 3.676
36.14000 3.892
36.16000 4.000
36.18000 2.973
36.20000 2.865
36.22000 3.514
36.24000 3.459
36.26000 2.703
36.28000 3.297
36.30000 3.568
36.32000 2.811
36.34000 2.486
36.36000 2.919
36.38000 2.703
36.40000 2.919
36.42000 2.973
36.44000 2.973
36.46000 2.541
36.48000 2.919
36.50000 2.811
36.52000 2.973
36.54000 2.432
36.56000 2.541
36.58000 2.324
36.60000 2.649
36.62000 2.216
36.64000 2.054
36.66000 2.649
36.68000 2.378
36.70000 2.649
36.72000 2.054
36.74000 2.865
36.76000 1.838
36.78000 2.649
36.80000 2.432
36.82000 2.270
36.84000 2.595
36.86000 2.649
36.88000 2.541
36.90000 2.919
36.92000 3.514
36.94000 2.378
36.96000 2.486
36.98000 3.622
37.00000 3.027
37.02000 2.703
37.04000 3.027
37.06000 2.649
37.08000 2.919
37.10000 2.432
37.12000 2.595
37.14000 2.703
37.16000 3.135
37.18000 2.541
37.20000 2.432
37.22000 2.865
37.24000 2.486
37.26000 2.541
37.28000 3.189
37.30000 2.757
37.32000 2.216
37.34000 2.216
37.36000 2.541
37.38000 2.486
37.40000 2.649
37.42000 2.811
37.44000 2.378
37.46000 2.595
37.48000 2.324
37.50000 2.541
37.52000 2.811
37.54000 2.973
37.56000 2.432
37.58000 2.054
37.60000 1.676
37.62000 2.703
37.64000 2.757
37.66000 2.703
37.68000 2.378
37.70000 2.270
37.72000 1.568
37.74000 3.297
37.76000 2.811
37.78000 2.703
37.80000 2.216
37.82000 2.811
37.84000 2.757
37.86000 2.649
37.88000 3.189
37.90000 2.054
37.92000 2.270
37.94000 2.757
37.96000 2.649
37.98000 2.649
38.00000 2.865
38.02000 3.027
38.04000 2.486
38.06000 3.189
38.08000 2.486
38.10000 2.378
38.12000 2.811
38.14000 3.243
38.16000 2.000
38.18000 2.162
38.20000 1.568
38.22000 2.162
38.24000 2.811
38.26000 2.378
38.28000 2.865
38.30000 2.649
38.32000 2.757
38.34000 3.027
38.36000 2.108
38.38000 2.432
38.40000 2.703
38.42000 3.676
38.44000 2.432
38.46000 1.946
38.48000 2.432
38.50000 1.838
38.52000 2.541
38.54000 2.432
38.56000 2.865
38.58000 3.027
38.60000 2.703
38.62000 2.595
38.64000 2.378
38.66000 1.838
38.68000 2.486
38.70000 2.216
38.72000 2.541
38.74000 2.919
38.76000 2.757
38.78000 2.216
38.80000 2.595
38.82000 2.054
38.84000 2.216
38.86000 2.162
38.88000 2.757
38.90000 3.135
38.92000 2.541
38.94000 2.270
38.96000 2.054
38.98000 1.892
39.00000 2.757
39.02000 2.865
39.04000 3.189
39.06000 2.486
39.08000 2.216
39.10000 2.973
39.12000 2.973
39.14000 2.649
39.16000 3.135
39.18000 3.135
39.20000 2.162
39.22000 3.135
39.24000 3.027
39.26000 3.027
39.28000 3.081
39.30000 3.135
39.32000 3.568
39.34000 3.676
39.36000 3.946
39.38000 2.973
39.40000 4.595
39.42000 3.838
39.44000 3.622
39.46000 4.216
39.48000 5.081
39.50000 5.243
39.52000 5.081
39.54000 4.811
39.56000 5.568
39.58000 6.216
39.60000 6.216
39.62000 8.378
39.64000 8.000
39.66000 7.730
39.68000 7.946
39.70000 10.324
39.72000 10.811
39.74000 10.919
39.76000 12.432
39.78000 11.730
39.80000 9.838
39.82000 12.919
39.84000 11.027
39.86000 11.351
39.88000 10.324
39.90000 9.568
39.92000 8.541
39.94000 7.135
39.96000 7.568
39.98000 6.595
40.00000 5.081
40.02000 4.865
40.04000 4.811
40.06000 4.432
40.08000 4.000
40.10000 4.054
40.12000 3.568
40.14000 3.784
40.16000 4.324
40.18000 3.297
40.20000 3.027
40.22000 3.568
40.24000 3.351
40.26000 3.459
40.28000 2.486
40.30000 3.243
40.32000 2.541
40.34000 2.757
40.36000 3.135
40.38000 3.081
40.40000 2.649
40.42000 3.081
40.44000 2.000
40.46000 2.973
40.48000 3.568
40.50000 2.432
40.52000 2.649
40.54000 3.243
40.56000 2.595
40.58000 2.432
40.60000 2.703
40.62000 3.027
40.64000 2.216
40.66000 1.946
40.68000 2.649
40.70000 3.243
40.72000 2.649
40.74000 1.676
40.76000 2.595
40.78000 2.108
40.80000 2.108
40.82000 2.649
40.84000 2.108
40.86000 2.649
40.88000 3.297
40.90000 2.973
40.92000 2.865
40.94000 3.730
40.96000 2.486
40.98000 1.730
41.00000 3.135
41.02000 3.297
41.04000 3.297
41.06000 3.243
41.08000 2.811
41.10000 2.757
41.12000 2.649
41.14000 2.703
41.16000 2.324
41.18000 2.324
41.20000 2.378
41.22000 2.595
41.24000 2.973
41.26000 2.595
41.28000 2.757
41.30000 1.946
41.32000 2.757
41.34000 3.189
41.36000 2.432
41.38000 2.919
41.40000 3.351
41.42000 2.108
41.44000 2.000
41.46000 3.514
41.48000 2.973
41.50000 3.351
41.52000 2.541
41.54000 1.946
41.56000 3.189
41.58000 3.405
41.60000 2.757
41.62000 3.135
41.64000 4.162
41.66000 2.811
41.68000 2.541
41.70000 2.919
41.72000 2.108
41.74000 3.838
41.76000 3.027
41.78000 3.568
41.80000 2.973
41.82000 3.243
41.84000 3.784
41.86000 3.405
41.88000 3.189
41.90000 3.459
41.92000 3.730
41.94000 2.757
41.96000 3.892
41.98000 2.703
42.00000 3.459
42.02000 3.081
42.04000 4.000
42.06000 3.459
42.08000 3.351
42.10000 4.216
42.12000 3.946
42.14000 3.405
42.16000 3.892
42.18000 2.216
42.20000 4.541
42.22000 4.811
42.24000 5.081
42.26000 4.378
42.28000 4.811
42.30000 6.270
42.32000 6.270
42.34000 5.676
42.36000 5.730
42.38000 6.108
42.40000 7.676
42.42000 8.378
42.44000 7.405
42.46000 8.216
42.48000 9.027
42.50000 9.405
42.52000 10.054
42.54000 11.838
42.56000 13.243
42.58000 14.324
42.60000 15.676
42.62000 17.730
42.64000 18.216
42.66000 16.378
42.68000 20.162
42.70000 21.568
42.72000 22.324
42.74000 21.243
42.76000 23.189
42.78000 23.243
42.80000 22.216
42.82000 20.703
42.84000 20.270
42.86000 21.081
42.88000 15.784
42.90000 18.000
42.92000 15.838
42.94000 12.757
42.96000 12.486
42.98000 11.459
43.00000 11.243
43.02000 10.432
43.04000 9.459
43.06000 8.595
43.08000 8.541
43.10000 8.865
43.12000 8.432
43.14000 6.919
43.16000 7.081
43.18000 7.243
43.20000 7.081
43.22000 7.568
43.24000 8.162
43.26000 7.730
43.28000 9.135
43.30000 8.649
43.32000 7.459
43.34000 10.865
43.36000 8.865
43.38000 10.162
43.40000 9.514
43.42000 11.459
43.44000 12.108
43.46000 11.297
43.48000 12.270
43.50000 13.351
43.52000 14.541
43.54000 17.838
43.56000 17.243
43.58000 19.730
43.60000 22.216
43.62000 25.027
43.64000 25.730
43.66000 30.865
43.68000 34.000
43.70000 34.486
43.72000 39.189
43.74000 40.865
43.76000 46.919
43.78000 48.432
43.80000 53.784
43.82000 55.568
43.84000 57.676
43.86000 56.162
43.88000 55.676
43.90000 59.568
43.92000 56.757
43.94000 53.514
43.96000 47.838
43.98000 45.784
44.00000 42.757
44.02000 36.811
44.04000 36.811
44.06000 30.324
44.08000 23.676
44.10000 22.865
44.12000 19.189
44.14000 17.838
44.16000 17.568
44.18000 14.378
44.20000 16.649
44.22000 14.216
44.24000 13.297
44.26000 13.459
44.28000 13.514
44.30000 12.811
44.32000 11.892
44.34000 12.703
44.36000 14.054
44.38000 16.649
44.40000 14.757
44.42000 17.243
44.44000 18.270
44.46000 18.486
44.48000 20.973
44.50000 22.865
44.52000 24.486
44.54000 27.730
44.56000 29.676
44.58000 33.297
44.60000 32.162
44.62000 36.973
44.64000 38.919
44.66000 38.973
44.68000 41.730
44.70000 45.189
44.72000 42.649
44.74000 43.459
44.76000 42.811
44.78000 37.351
44.80000 35.243
44.82000 37.784
44.84000 32.811
44.86000 28.595
44.88000 26.703
44.90000 23.189
44.92000 21.027
44.94000 18.486
44.96000 16.054
44.98000 16.270
45.00000 13.622
45.02000 12.649
45.04000 11.081
45.06000 10.162
45.08000 10.000
45.10000 9.784
45.12000 11.189
45.14000 7.892
45.16000 8.865
45.18000 9.459
45.20000 8.865
45.22000 8.757
45.24000 9.405
45.26000 9.351
45.28000 9.676
45.30000 10.270
45.32000 9.297
45.34000 9.622
45.36000 11.946
45.38000 12.432
45.40000 14.378
45.42000 13.243
45.44000 16.919
45.46000 18.216
45.48000 19.892
45.50000 20.649
45.52000 23.838
45.54000 25.297
45.56000 25.135
45.58000 31.730
45.60000 33.405
45.62000 36.703
45.64000 41.676
45.66000 46.108
45.68000 47.892
45.70000 55.243
45.72000 62.919
45.74000 64.270
45.76000 67.189
45.78000 70.378
45.80000 77.081
45.82000 76.973
45.84000 76.432
45.86000 74.432
45.88000 76.432
45.90000 75.622
45.92000 69.838
45.94000 65.135
45.96000 62.757
45.98000 56.054
46.00000 50.486
46.02000 45.135
46.04000 39.730
46.06000 34.595
46.08000 31.784
46.10000 28.432
46.12000 23.243
46.14000 20.757
46.16000 15.514
46.18000 15.568
