'Id: "COMMANDER Sample ID" Comment: "" Operator: "Lab Manager" Anode: "Cu" Wavelength: "1.5406" Scantype: "2Theta (TwoTheta)" TimePerStep: "9.4" X: "2" Y: "2" Z: "7.35" 
20.00000 5.213
20.01000 5.000
20.02000 5.745
20.03000 5.957
20.04000 4.468
20.05000 5.213
20.06000 5.745
20.07000 4.894
20.08000 5.319
20.09000 3.511
20.10000 4.787
20.11000 6.702
20.12000 4.362
20.13000 4.787
20.14000 4.787
20.15000 5.851
20.16000 7.021
20.17000 4.894
20.18000 5.426
20.19000 4.681
20.20000 4.468
20.21000 4.255
20.22000 5.213
20.23000 4.894
20.24000 4.468
20.25000 4.787
20.26000 4.255
20.27000 4.681
20.28000 4.043
20.29000 4.362
20.30000 4.362
20.31000 4.468
20.32000 4.043
20.33000 4.894
20.34000 5.851
20.35000 4.681
20.36000 5.213
20.37000 4.574
20.38000 4.149
20.39000 5.319
20.40000 5.532
20.41000 5.213
20.42000 3.511
20.43000 4.468
20.44000 5.106
20.45000 5.851
20.46000 5.213
20.47000 4.043
20.48000 3.830
20.49000 5.426
20.50000 4.043
20.51000 4.043
20.52000 5.000
20.53000 4.043
20.54000 4.787
20.55000 5.851
20.56000 4.255
20.57000 5.319
20.58000 5.213
20.59000 5.106
20.60000 6.064
20.61000 2.872
20.62000 5.213
20.63000 5.426
20.64000 4.787
20.65000 4.149
20.66000 4.255
20.67000 3.511
20.68000 4.362
20.69000 4.149
20.70000 4.255
20.71000 5.213
20.72000 3.617
20.73000 4.681
20.74000 5.319
20.75000 4.787
20.76000 4.362
20.77000 5.319
20.78000 5.213
20.79000 5.319
20.80000 5.106
20.81000 6.170
20.82000 5.106
20.83000 5.000
20.84000 3.511
20.85000 4.894
20.86000 4.681
20.87000 5.319
20.88000 5.319
20.89000 4.149
20.90000 4.362
20.91000 4.894
20.92000 4.681
20.93000 4.574
20.94000 5.319
20.95000 5.426
20.96000 5.319
20.97000 4.574
20.98000 3.617
20.99000 4.255
21.00000 4.681
21.01000 3.723
21.02000 5.319
21.03000 5.745
21.04000 4.468
21.05000 4.894
21.06000 4.468
21.07000 5.213
21.08000 4.043
21.09000 5.638
21.10000 5.000
21.11000 4.681
21.12000 4.574
21.13000 3.936
21.14000 5.638
21.15000 3.617
21.16000 4.468
21.17000 5.000
21.18000 3.511
21.19000 5.851
21.20000 5.213
21.21000 4.574
21.22000 3.191
21.23000 5.638
21.24000 4.043
21.25000 4.468
21.26000 4.468
21.27000 5.106
21.28000 4.894
21.29000 4.574
21.30000 5.532
21.31000 5.638
21.32000 4.894
21.33000 3.830
21.34000 5.319
21.35000 4.043
21.36000 4.362
21.37000 5.426
21.38000 5.638
21.39000 4.787
21.40000 5.000
21.41000 5.638
21.42000 4.149
21.43000 6.170
21.44000 5.319
21.45000 3.404
21.46000 4.894
21.47000 4.043
21.48000 4.043
21.49000 5.000
21.50000 4.149
21.51000 5.213
21.52000 4.787
21.53000 4.894
21.54000 4.787
21.55000 5.426
21.56000 5.957
21.57000 4.894
21.58000 4.043
21.59000 4.681
21.60000 5.106
21.61000 4.574
21.62000 5.532
21.63000 4.574
21.64000 4.468
21.65000 5.851
21.66000 5.000
21.67000 7.553
21.68000 5.426
21.69000 4.787
21.70000 5.532
21.71000 4.681
21.72000 6.277
21.73000 4.362
21.74000 5.319
21.75000 4.787
21.76000 4.255
21.77000 5.000
21.78000 5.106
21.79000 4.894
21.80000 4.787
21.81000 4.894
21.82000 5.106
21.83000 4.149
21.84000 4.787
21.85000 5.957
21.86000 5.426
21.87000 5.213
21.88000 6.596
21.89000 5.532
21.90000 4.255
21.91000 5.532
21.92000 6.702
21.93000 6.064
21.94000 4.787
21.95000 5.106
21.96000 5.745
21.97000 5.851
21.98000 7.021
21.99000 5.957
22.00000 5.745
22.01000 6.170
22.02000 6.489
22.03000 5.957
22.04000 7.553
22.05000 6.277
22.06000 5.213
22.07000 6.277
22.08000 5.106
22.09000 5.638
22.10000 4.468
22.11000 4.787
22.12000 6.277
22.13000 5.851
22.14000 5.319
22.15000 5.106
22.16000 5.319
22.17000 6.489
22.18000 5.638
22.19000 6.489
22.20000 5.319
22.21000 6.489
22.22000 4.574
22.23000 4.255
22.24000 5.638
22.25000 5.000
22.26000 5.745
22.27000 3.723
22.28000 5.638
22.29000 5.106
22.30000 4.894
22.31000 4.894
22.32000 3.617
22.33000 5.745
22.34000 5.745
22.35000 5.000
22.36000 4.468
22.37000 4.362
22.38000 4.681
22.39000 5.213
22.40000 5.106
22.41000 4.574
22.42000 5.319
22.43000 4.681
22.44000 3.723
22.45000 4.681
22.46000 4.362
22.47000 5.000
22.48000 3.617
22.49000 6.170
22.50000 4.255
22.51000 5.532
22.52000 4.043
22.53000 5.213
22.54000 5.106
22.55000 4.681
22.56000 4.149
22.57000 4.362
22.58000 3.936
22.59000 5.000
22.60000 4.574
22.61000 5.319
22.62000 4.574
22.63000 5.532
22.64000 4.362
22.65000 6.170
22.66000 4.255
22.67000 4.681
22.68000 4.468
22.69000 5.106
22.70000 4.362
22.71000 5.426
22.72000 4.149
22.73000 4.574
22.74000 4.362
22.75000 4.787
22.76000 3.191
22.77000 5.426
22.78000 5.106
22.79000 4.149
22.80000 4.149
22.81000 4.255
22.82000 5.957
22.83000 4.468
22.84000 4.362
22.85000 5.532
22.86000 4.787
22.87000 4.787
22.88000 3.617
22.89000 4.894
22.90000 4.149
22.91000 3.936
22.92000 4.149
22.93000 4.894
22.94000 4.255
22.95000 5.957
22.96000 4.043
22.97000 3.298
22.98000 5.851
22.99000 4.362
23.00000 4.681
23.01000 5.213
23.02000 4.681
23.03000 4.894
23.04000 3.511
23.05000 5.638
23.06000 4.894
23.07000 4.787
23.08000 4.468
23.09000 3.830
23.10000 5.532
23.11000 5.851
23.12000 4.362
23.13000 3.936
23.14000 4.255
23.15000 3.404
23.16000 4.255
23.17000 4.894
23.18000 4.043
23.19000 4.362
23.20000 4.362
23.21000 3.936
23.22000 5.106
23.23000 4.468
23.24000 4.362
23.25000 5.000
23.26000 5.319
23.27000 4.149
23.28000 4.043
23.29000 4.787
23.30000 4.787
23.31000 4.468
23.32000 4.043
23.33000 5.213
23.34000 3.830
23.35000 4.362
23.36000 4.681
23.37000 4.787
23.38000 5.426
23.39000 5.532
23.40000 4.362
23.41000 4.043
23.42000 4.681
23.43000 3.830
23.44000 3.830
23.45000 4.043
23.46000 4.787
23.47000 4.681
23.48000 5.000
23.49000 4.043
23.50000 3.191
23.51000 3.511
23.52000 4.681
23.53000 4.894
23.54000 4.362
23.55000 4.681
23.56000 4.681
23.57000 4.787
23.58000 3.617
23.59000 4.681
23.60000 5.319
23.61000 5.745
23.62000 5.319
23.63000 3.085
23.64000 5.319
23.65000 4.681
23.66000 4.894
23.67000 4.681
23.68000 5.957
23.69000 4.894
23.70000 4.468
23.71000 4.468
23.72000 4.681
23.73000 5.851
23.74000 3.936
23.75000 4.787
23.76000 3.617
23.77000 5.426
23.78000 4.787
23.79000 4.362
23.80000 5.106
23.81000 4.681
23.82000 4.574
23.83000 3.723
23.84000 5.000
23.85000 4.468
23.86000 3.830
23.87000 4.894
23.88000 4.787
23.89000 4.894
23.90000 5.213
23.91000 4.043
23.92000 4.255
23.93000 3.511
23.94000 4.681
23.95000 4.362
23.96000 5.106
23.97000 4.362
23.98000 5.000
23.99000 4.894
24.00000 4.787
24.01000 5.851
24.02000 5.000
24.03000 4.894
24.04000 3.936
24.05000 5.957
24.06000 4.362
24.07000 4.362
24.08000 4.894
24.09000 4.468
24.10000 3.936
24.11000 5.000
24.12000 5.106
24.13000 4.681
24.14000 3.830
24.15000 5.638
24.16000 3.830
24.17000 4.468
24.18000 4.574
24.19000 5.106
24.20000 5.000
24.21000 5.106
24.22000 4.681
24.23000 4.255
24.24000 4.362
24.25000 4.681
24.26000 5.426
24.27000 4.894
24.28000 3.723
24.29000 4.468
24.30000 4.574
24.31000 3.511
24.32000 4.787
24.33000 4.043
24.34000 5.319
24.35000 4.149
24.36000 4.149
24.37000 4.574
24.38000 5.426
24.39000 4.149
24.40000 6.702
24.41000 4.149
24.42000 5.532
24.43000 5.638
24.44000 3.723
24.45000 4.255
24.46000 6.383
24.47000 4.787
24.48000 4.787
24.49000 5.426
24.50000 4.255
24.51000 4.043
24.52000 3.936
24.53000 4.574
24.54000 5.319
24.55000 4.255
24.56000 5.000
24.57000 4.149
24.58000 4.894
24.59000 4.894
24.60000 4.681
24.61000 6.596
24.62000 5.426
24.63000 4.149
24.64000 5.745
24.65000 5.638
24.66000 4.574
24.67000 5.000
24.68000 4.149
24.69000 5.000
24.70000 4.574
24.71000 3.936
24.72000 3.723
24.73000 4.362
24.74000 5.638
24.75000 5.213
24.76000 4.894
24.77000 6.702
24.78000 5.532
24.79000 5.000
24.80000 5.638
24.81000 3.936
24.82000 3.936
24.83000 5.532
24.84000 5.213
24.85000 4.468
24.86000 4.894
24.87000 4.468
24.88000 3.830
24.89000 4.468
24.90000 6.064
24.91000 5.426
24.92000 5.213
24.93000 5.213
24.94000 4.255
24.95000 5.957
24.96000 5.213
24.97000 4.468
24.98000 4.787
24.99000 5.426
25.00000 4.681
25.01000 3.723
25.02000 5.638
25.03000 4.681
25.04000 5.000
25.05000 5.638
25.06000 4.362
25.07000 5.213
25.08000 4.362
25.09000 5.106
25.10000 5.638
25.11000 4.362
25.12000 5.638
25.13000 5.106
25.14000 5.638
25.15000 4.894
25.16000 5.851
25.17000 4.468
25.18000 4.894
25.19000 4.894
25.20000 5.745
25.21000 4.043
25.22000 4.681
25.23000 4.787
25.24000 4.681
25.25000 6.064
25.26000 4.255
25.27000 5.532
25.28000 4.894
25.29000 6.277
25.30000 5.106
25.31000 5.106
25.32000 6.702
25.33000 5.957
25.34000 5.851
25.35000 5.638
25.36000 5.426
25.37000 5.000
25.38000 5.319
25.39000 5.213
25.40000 4.255
25.41000 4.681
25.42000 5.319
25.43000 4.894
25.44000 4.574
25.45000 5.638
25.46000 6.064
25.47000 5.532
25.48000 6.064
25.49000 6.489
25.50000 5.745
25.51000 5.532
25.52000 5.213
25.53000 4.681
25.54000 6.596
25.55000 4.149
25.56000 4.787
25.57000 6.277
25.58000 5.319
25.59000 5.638
25.60000 5.213
25.61000 4.681
25.62000 5.532
25.63000 6.064
25.64000 5.426
25.65000 5.957
25.66000 5.000
25.67000 5.319
25.68000 5.532
25.69000 5.957
25.70000 6.277
25.71000 4.894
25.72000 6.064
25.73000 4.468
25.74000 5.638
25.75000 6.915
25.76000 4.468
25.77000 5.532
25.78000 5.426
25.79000 5.638
25.80000 3.617
25.81000 6.383
25.82000 5.426
25.83000 5.957
25.84000 6.277
25.85000 5.213
25.86000 5.851
25.87000 5.213
25.88000 5.957
25.89000 5.106
25.90000 4.787
25.91000 5.638
25.92000 5.532
25.93000 6.383
25.94000 6.064
25.95000 5.426
25.96000 6.170
25.97000 6.489
25.98000 4.681
25.99000 6.064
26.00000 6.489
26.01000 6.170
26.02000 5.851
26.03000 3.723
26.04000 4.894
26.05000 5.745
26.06000 6.170
26.07000 5.106
26.08000 4.681
26.09000 5.426
26.10000 5.319
26.11000 6.702
26.12000 6.489
26.13000 5.319
26.14000 4.787
26.15000 5.532
26.16000 5.957
26.17000 5.745
26.18000 5.106
26.19000 5.106
26.20000 4.787
26.21000 6.702
26.22000 5.851
26.23000 5.319
26.24000 5.851
26.25000 5.000
26.26000 6.064
26.27000 6.277
26.28000 6.170
26.29000 5.638
26.30000 5.851
26.31000 5.213
26.32000 4.894
26.33000 5.638
26.34000 4.149
26.35000 4.362
26.36000 5.426
26.37000 4.362
26.38000 5.957
26.39000 4.574
26.40000 6.170
26.41000 4.468
26.42000 6.383
26.43000 5.851
26.44000 4.681
26.45000 7.128
26.46000 5.638
26.47000 4.787
26.48000 5.851
26.49000 5.426
26.50000 4.787
26.51000 4.149
26.52000 4.894
26.53000 5.000
26.54000 6.383
26.55000 5.532
26.56000 3.936
26.57000 5.213
26.58000 4.362
26.59000 4.574
26.60000 5.213
26.61000 5.426
26.62000 5.319
26.63000 4.787
26.64000 4.681
26.65000 4.255
26.66000 5.106
26.67000 5.426
26.68000 4.894
26.69000 4.787
26.70000 6.596
26.71000 5.213
26.72000 5.426
26.73000 5.106
26.74000 5.106
26.75000 5.213
26.76000 5.319
26.77000 4.468
26.78000 3.936
26.79000 6.277
26.80000 3.936
26.81000 5.532
26.82000 4.468
26.83000 5.426
26.84000 4.149
26.85000 5.745
26.86000 4.043
26.87000 5.532
26.88000 5.532
26.89000 5.851
26.90000 4.787
26.91000 6.809
26.92000 5.851
26.93000 5.957
26.94000 4.681
26.95000 5.532
26.96000 4.787
26.97000 4.787
26.98000 4.043
26.99000 4.362
27.00000 4.574
27.01000 6.383
27.02000 5.000
27.03000 4.043
27.04000 6.064
27.05000 5.319
27.06000 5.106
27.07000 5.745
27.08000 4.894
27.09000 4.787
27.10000 4.787
27.11000 5.532
27.12000 6.277
27.13000 5.957
27.14000 7.447
27.15000 7.766
27.16000 6.170
27.17000 4.681
27.18000 4.787
27.19000 6.383
27.20000 6.596
27.21000 7.021
27.22000 7.872
27.23000 6.383
27.24000 5.106
27.25000 7.660
27.26000 6.702
27.27000 8.298
27.28000 6.170
27.29000 7.340
27.30000 7.021
27.31000 8.298
27.32000 6.489
27.33000 7.766
27.34000 9.149
27.35000 7.128
27.36000 6.170
27.37000 6.702
27.38000 7.447
27.39000 7.021
27.40000 7.234
27.41000 7.872
27.42000 5.106
27.43000 5.851
27.44000 4.574
27.45000 6.277
27.46000 6.170
27.47000 4.894
27.48000 5.745
27.49000 5.745
27.50000 5.000
27.51000 5.426
27.52000 4.362
27.53000 5.745
27.54000 5.638
27.55000 4.681
27.56000 5.106
27.57000 4.468
27.58000 5.213
27.59000 4.362
27.60000 5.213
27.61000 4.894
27.62000 4.255
27.63000 4.574
27.64000 4.255
27.65000 4.894
27.66000 4.362
27.67000 3.723
27.68000 4.574
27.69000 3.511
27.70000 3.298
27.71000 5.319
27.72000 3.936
27.73000 3.617
27.74000 3.298
27.75000 3.511
27.76000 3.617
27.77000 3.085
27.78000 4.149
27.79000 3.723
27.80000 5.000
27.81000 4.043
27.82000 3.511
27.83000 3.085
27.84000 4.255
27.85000 3.404
27.86000 5.319
27.87000 3.936
27.88000 3.723
27.89000 4.149
27.90000 3.617
27.91000 3.404
27.92000 4.043
27.93000 2.021
27.94000 2.872
27.95000 4.255
27.96000 3.404
27.97000 2.766
27.98000 4.255
27.99000 2.872
28.00000 2.234
28.01000 3.085
28.02000 2.872
28.03000 3.404
28.04000 4.894
28.05000 2.979
28.06000 3.404
28.07000 3.723
28.08000 2.872
28.09000 2.872
28.10000 3.723
28.11000 3.191
28.12000 3.617
28.13000 3.085
28.14000 3.617
28.15000 3.085
28.16000 3.617
28.17000 2.766
28.18000 4.255
28.19000 3.298
28.20000 3.085
28.21000 2.553
28.22000 3.298
28.23000 3.936
28.24000 3.830
28.25000 3.936
28.26000 4.149
28.27000 2.660
28.28000 3.191
28.29000 3.404
28.30000 3.404
28.31000 3.511
28.32000 4.255
28.33000 2.553
28.34000 3.936
28.35000 4.362
28.36000 2.340
28.37000 3.723
28.38000 3.404
28.39000 4.043
28.40000 3.830
28.41000 2.766
28.42000 3.298
28.43000 4.362
28.44000 2.447
28.45000 3.404
28.46000 3.511
28.47000 2.766
28.48000 2.872
28.49000 2.553
28.50000 3.723
28.51000 3.191
28.52000 3.723
28.53000 2.660
28.54000 3.617
28.55000 3.298
28.56000 4.787
28.57000 2.766
28.58000 2.766
28.59000 3.723
28.60000 2.766
28.61000 3.085
28.62000 3.298
28.63000 2.766
28.64000 3.723
28.65000 4.255
28.66000 3.191
28.67000 3.617
28.68000 3.723
28.69000 3.511
28.70000 3.298
28.71000 2.766
28.72000 3.085
28.73000 3.404
28.74000 3.404
28.75000 2.979
28.76000 3.191
28.77000 2.766
28.78000 2.128
28.79000 2.447
28.80000 3.511
28.81000 4.149
28.82000 3.191
28.83000 2.660
28.84000 3.085
28.85000 3.298
28.86000 2.872
28.87000 3.617
28.88000 2.766
28.89000 2.766
28.90000 3.085
28.91000 2.447
28.92000 2.660
28.93000 3.617
28.94000 2.128
28.95000 3.404
28.96000 2.447
28.97000 3.404
28.98000 3.617
28.99000 4.043
29.00000 2.766
29.01000 2.872
29.02000 4.894
29.03000 2.447
29.04000 3.191
29.05000 2.766
29.06000 3.085
29.07000 3.404
29.08000 3.830
29.09000 3.511
29.10000 3.936
29.11000 3.085
29.12000 3.404
29.13000 2.447
29.14000 3.617
29.15000 3.085
29.16000 3.617
29.17000 4.468
29.18000 3.298
29.19000 3.617
29.20000 2.447
29.21000 3.511
29.22000 2.872
29.23000 3.085
29.24000 3.085
29.25000 4.255
29.26000 2.660
29.27000 3.298
29.28000 2.872
29.29000 2.447
29.30000 3.191
29.31000 3.191
29.32000 2.447
29.33000 2.447
29.34000 3.404
29.35000 3.085
29.36000 3.511
29.37000 2.234
29.38000 3.298
29.39000 3.191
29.40000 2.872
29.41000 2.128
29.42000 2.766
29.43000 2.021
29.44000 3.085
29.45000 3.404
29.46000 3.298
29.47000 2.447
29.48000 3.936
29.49000 3.298
29.50000 3.617
29.51000 2.766
29.52000 2.340
29.53000 2.766
29.54000 3.511
29.55000 2.660
29.56000 3.404
29.57000 2.553
29.58000 3.191
29.59000 2.553
29.60000 2.872
29.61000 2.979
29.62000 3.298
29.63000 3.830
29.64000 2.660
29.65000 2.553
29.66000 3.298
29.67000 2.447
29.68000 2.234
29.69000 2.766
29.70000 3.191
29.71000 3.298
29.72000 2.447
29.73000 3.511
29.74000 2.021
29.75000 3.085
29.76000 3.723
29.77000 2.553
29.78000 3.511
29.79000 3.191
29.80000 3.191
29.81000 3.830
29.82000 1.809
29.83000 3.723
29.84000 2.447
29.85000 3.404
29.86000 2.128
29.87000 2.660
29.88000 2.553
29.89000 2.979
29.90000 2.872
29.91000 3.191
29.92000 2.766
29.93000 2.128
29.94000 2.553
29.95000 3.511
29.96000 2.128
29.97000 3.191
29.98000 2.340
29.99000 2.447
30.00000 3.723
30.01000 3.085
30.02000 3.511
30.03000 2.660
30.04000 2.766
30.05000 1.915
30.06000 2.234
30.07000 3.191
30.08000 3.404
30.09000 2.660
30.10000 2.872
30.11000 3.404
30.12000 2.766
30.13000 2.660
30.14000 4.043
30.15000 2.660
30.16000 3.511
30.17000 2.447
30.18000 2.234
30.19000 2.021
30.20000 2.553
30.21000 2.553
30.22000 2.872
30.23000 2.766
30.24000 2.660
30.25000 3.085
30.26000 3.511
30.27000 1.915
30.28000 2.553
30.29000 3.298
30.30000 2.766
30.31000 3.191
30.32000 2.021
30.33000 2.234
30.34000 2.766
30.35000 3.404
30.36000 2.340
30.37000 3.191
30.38000 3.830
30.39000 2.660
30.40000 2.553
30.41000 2.553
30.42000 2.872
30.43000 3.617
30.44000 2.021
30.45000 3.404
30.46000 2.872
30.47000 2.128
30.48000 3.617
30.49000 3.936
30.50000 3.936
30.51000 2.553
30.52000 2.766
30.53000 2.979
30.54000 3.191
30.55000 2.234
30.56000 3.936
30.57000 3.617
30.58000 3.298
30.59000 2.128
30.60000 2.979
30.61000 3.085
30.62000 2.660
30.63000 3.085
30.64000 2.979
30.65000 2.660
30.66000 2.234
30.67000 2.340
30.68000 2.234
30.69000 3.511
30.70000 3.723
30.71000 2.447
30.72000 3.085
30.73000 2.979
30.74000 2.872
30.75000 2.553
30.76000 3.191
30.77000 2.979
30.78000 2.660
30.79000 2.553
30.80000 3.085
30.81000 2.340
30.82000 2.340
30.83000 2.128
30.84000 2.660
30.85000 3.617
30.86000 3.191
30.87000 2.766
30.88000 3.511
30.89000 3.511
30.90000 3.723
30.91000 3.723
30.92000 2.447
30.93000 3.298
30.94000 3.404
30.95000 3.723
30.96000 2.872
30.97000 3.404
30.98000 3.085
30.99000 2.447
31.00000 3.404
31.01000 4.149
31.02000 3.511
31.03000 3.085
31.04000 3.830
31.05000 3.511
31.06000 2.447
31.07000 3.936
31.08000 4.681
31.09000 4.149
31.10000 4.362
31.11000 3.830
31.12000 4.468
31.13000 3.723
31.14000 3.936
31.15000 5.106
31.16000 4.787
31.17000 4.894
31.18000 3.617
31.19000 3.936
31.20000 4.894
31.21000 4.787
31.22000 4.894
31.23000 3.298
31.24000 5.000
31.25000 4.574
31.26000 4.574
31.27000 4.255
31.28000 5.319
31.29000 5.957
31.30000 5.638
31.31000 5.106
31.32000 5.532
31.33000 4.894
31.34000 5.638
31.35000 5.957
31.36000 4.894
31.37000 3.723
31.38000 3.936
31.39000 5.532
31.40000 4.149
31.41000 5.106
31.42000 3.830
31.43000 4.149
31.44000 5.319
31.45000 5.319
31.46000 4.681
31.47000 2.872
31.48000 4.255
31.49000 5.000
31.50000 3.191
31.51000 3.404
31.52000 4.787
31.53000 3.085
31.54000 3.511
31.55000 2.766
31.56000 1.809
31.57000 2.660
31.58000 4.362
31.59000 2.553
31.60000 2.660
31.61000 2.447
31.62000 2.766
31.63000 2.979
31.64000 3.617
31.65000 3.830
31.66000 2.128
31.67000 3.085
31.68000 3.191
31.69000 4.149
31.70000 2.553
31.71000 2.660
31.72000 2.660
31.73000 3.191
31.74000 2.660
31.75000 4.149
31.76000 2.766
31.77000 3.298
31.78000 3.936
31.79000 2.766
31.80000 3.191
31.81000 3.723
31.82000 3.723
31.83000 4.255
31.84000 3.723
31.85000 2.766
31.86000 2.872
31.87000 3.298
31.88000 2.340
31.89000 2.872
31.90000 2.340
31.91000 3.404
31.92000 4.043
31.93000 3.404
31.94000 3.511
31.95000 3.298
31.96000 2.553
31.97000 2.872
31.98000 2.872
31.99000 2.766
32.00000 3.085
32.01000 3.404
32.02000 3.085
32.03000 2.021
32.04000 2.553
32.05000 3.085
32.06000 2.979
32.07000 2.553
32.08000 2.447
32.09000 4.149
32.10000 2.872
32.11000 2.979
32.12000 2.340
32.13000 2.340
32.14000 3.298
32.15000 3.617
32.16000 2.021
32.17000 2.872
32.18000 2.234
32.19000 3.830
32.20000 2.340
32.21000 3.830
32.22000 2.872
32.23000 3.617
32.24000 3.085
32.25000 2.766
32.26000 3.830
32.27000 2.234
32.28000 3.617
32.29000 3.511
32.30000 2.872
32.31000 2.340
32.32000 2.553
32.33000 2.660
32.34000 2.234
32.35000 2.872
32.36000 2.766
32.37000 3.298
32.38000 2.234
32.39000 2.979
32.40000 3.404
32.41000 2.766
32.42000 3.511
32.43000 4.043
32.44000 2.553
32.45000 3.617
32.46000 4.681
32.47000 3.723
32.48000 2.979
32.49000 5.000
32.50000 5.532
32.51000 3.404
32.52000 4.149
32.53000 5.213
32.54000 5.213
32.55000 3.085
32.56000 5.000
32.57000 5.426
32.58000 5.957
32.59000 4.362
32.60000 5.957
32.61000 5.638
32.62000 4.468
32.63000 4.255
32.64000 7.234
32.65000 5.319
32.66000 7.021
32.67000 6.064
32.68000 7.021
32.69000 6.383
32.70000 6.915
32.71000 7.766
32.72000 7.766
32.73000 7.128
32.74000 10.745
32.75000 8.617
32.76000 7.128
32.77000 8.830
32.78000 9.149
32.79000 7.766
32.80000 9.574
32.81000 8.191
32.82000 8.830
32.83000 8.830
32.84000 8.617
32.85000 6.809
32.86000 7.234
32.87000 7.447
32.88000 8.298
32.89000 8.298
32.90000 4.574
32.91000 8.085
32.92000 6.915
32.93000 6.064
32.94000 6.489
32.95000 5.638
32.96000 5.745
32.97000 7.766
32.98000 6.277
32.99000 4.681
33.00000 6.702
33.01000 5.851
33.02000 4.468
33.03000 4.362
33.04000 5.638
33.05000 5.532
33.06000 6.064
33.07000 5.213
33.08000 4.362
33.09000 4.362
33.10000 5.532
33.11000 4.255
33.12000 4.362
33.13000 3.404
33.14000 3.936
33.15000 4.043
33.16000 3.511
33.17000 4.468
33.18000 3.830
33.19000 4.149
33.20000 3.723
